ProDataStore
Tue Apr 29 14:15:12 2014
Remarks:
5
#HT (Fluorescence channel): 330.002
#HT (Absorbance channel): 330
#Samples per point: 8000
#Sample period: 12.5 us
#Temperature: 22.66 C
0
Properties:
1
Fluorescence -dual
Dimensions:
3
Time -ovs 
100
0.1,0.2,0.3,0.4,0.5,0.6,0.7,0.8,0.9,1,1.1,1.2,1.3,1.4,1.5,1.6,1.7,1.8,1.9,2,2.1,2.2,2.3,2.4,2.5,2.6,2.7,2.8,2.9,3,3.1,3.2,3.3,3.4,3.5,3.6,3.7,3.8,3.9,4,4.1,4.2,4.3,4.4,4.5,4.6,4.7,4.8,4.9,5,5.1,5.2,5.3,5.4,5.5,5.6,5.7,5.8,5.9,6,6.1,6.2,6.3,6.4,6.5,6.6,6.7,6.8,6.9,7,7.1,7.2,7.3,7.4,7.5,7.6,7.7,7.8,7.9,8,8.1,8.2,8.3,8.4,8.5,8.6,8.7,8.8,8.9,9,9.1,9.2,9.3,9.4,9.5,9.6,9.7,9.8,9.9,10

Wavelength -iter
1
250

Channel
2
3,1



-0.00239134,-0.00241041,-0.00239134,-0.00240565,-0.00240803,-0.00242233,-0.00241041,-0.00239611,-0.00240326,-0.00239134,-0.00240803,-0.00240326,-0.00241518,-0.00240565,-0.00240326,-0.00240326,-0.00240088,-0.00240803,-0.00240088,-0.00240326,-0.00241041,-0.00239134,-0.00239849,-0.00240565,-0.00239849,-0.00237942,-0.00238896,-0.00239849,-0.00239611,-0.00239611,-0.00240088,-0.00239849,-0.00240803,-0.00239849,-0.00239611,-0.00241041,-0.00239849,-0.00242233,-0.00239849,-0.00239611,-0.00241757,-0.00240326,-0.00241041,-0.00241757,-0.00241518,-0.00241518,-0.00239372,-0.00239372,-0.00241757,-0.00240565,-0.00240088,-0.00240326,-0.00240803,-0.00239134,-0.00239611,-0.00241518,-0.00239611,-0.00240565,-0.00239849,-0.00239849,-0.00239372,-0.00240088,-0.00239134,-0.00239134,-0.00238896,-0.00240088,-0.00240088,-0.00240088,-0.00238896,-0.00239372,-0.00240326,-0.00238419,-0.00240088,-0.00239611,-0.00238896,-0.00240803,-0.00240565,-0.00239611,-0.00240803,-0.00240803,-0.00239611,-0.00240803,-0.00239611,-0.00240803,-0.00240088,-0.00240565,-0.00240088,-0.00239611,-0.00241041,-0.00241041,-0.00240803,-0.00241041,-0.00241518,-0.00240326,-0.00241757,-0.00241041,-0.00240803,-0.00240326,-0.0024128,-0.00242233

-0.0032568,-0.00327111,-0.00327111,-0.00327111,-0.00327349,-0.00328303,-0.00328541,-0.00328541,-0.00328064,-0.00327349,-0.00327587,-0.00328064,-0.00327587,-0.00329495,-0.00327349,-0.00327826,-0.00327349,-0.00327826,-0.00328779,-0.00327826,-0.00326872,-0.00327587,-0.00327587,-0.00326872,-0.00327349,-0.00328064,-0.00326395,-0.0032568,-0.00326395,-0.00327587,-0.00326872,-0.00327111,-0.00327111,-0.00326634,-0.00328303,-0.00327587,-0.00326872,-0.00327111,-0.00326634,-0.00326634,-0.00326395,-0.00326634,-0.00326157,-0.00326872,-0.00326872,-0.0032568,-0.00327111,-0.00324965,-0.00326634,-0.00326395,-0.00324726,-0.00326634,-0.00326872,-0.00326634,-0.00327349,-0.00327587,-0.00326634,-0.00326395,-0.00326634,-0.00326634,-0.00327349,-0.00326872,-0.00326395,-0.00325442,-0.00327111,-0.00327111,-0.00327111,-0.00327111,-0.00326872,-0.00327349,-0.00326872,-0.00327111,-0.00326634,-0.00326157,-0.00325203,-0.00326157,-0.00324488,-0.00325203,-0.00326157,-0.00324488,-0.00324726,-0.00325442,-0.00324965,-0.00325442,-0.00324726,-0.00324011,-0.00324726,-0.00323296,-0.00324726,-0.00324011,-0.00324488,-0.00323296,-0.00323534,-0.00323534,-0.0032425,-0.00322819,-0.00323773,-0.00324488,-0.00324965,-0.00324965
History:
0
0
