ProDataStore
Tue Apr 29 14:08:52 2014
Remarks:
5
#HT (Fluorescence channel): 509.995
#HT (Absorbance channel): 510
#Samples per point: 8000
#Sample period: 12.5 us
#Temperature: 22.71 C
0
Properties:
1
Fluorescence -dual
Dimensions:
3
Time -ovs 
100
0.1,0.2,0.3,0.4,0.5,0.6,0.7,0.8,0.9,1,1.1,1.2,1.3,1.4,1.5,1.6,1.7,1.8,1.9,2,2.1,2.2,2.3,2.4,2.5,2.6,2.7,2.8,2.9,3,3.1,3.2,3.3,3.4,3.5,3.6,3.7,3.8,3.9,4,4.1,4.2,4.3,4.4,4.5,4.6,4.7,4.8,4.9,5,5.1,5.2,5.3,5.4,5.5,5.6,5.7,5.8,5.9,6,6.1,6.2,6.3,6.4,6.5,6.6,6.7,6.8,6.9,7,7.1,7.2,7.3,7.4,7.5,7.6,7.7,7.8,7.9,8,8.1,8.2,8.3,8.4,8.5,8.6,8.7,8.8,8.9,9,9.1,9.2,9.3,9.4,9.5,9.6,9.7,9.8,9.9,10

Wavelength -iter
1
250

Channel
2
3,1



0.000333786,0.00017643,0.000574589,0.000317097,0.000331402,0.000259876,0.000441075,0.000379086,0.000422001,0.000281334,0.000338555,0.000240803,0.00045538,0.00048399,0.000369549,0.000343323,0.000391007,0.000441075,0.000367165,0.000219345,0.000247955,0.000290871,0.000305176,0.000338555,0.000326634,0.000209808,0.000135899,0.000340939,0.000374317,0.000400544,0.00035286,0.000414849,0.000257492,0.000460148,0.000355244,0.000214577,0.000305176,0.000298023,0.000271797,0.00030756,0.000393391,0.00027895,0.000240803,0.00033617,0.000574589,0.000305176,0.000376702,0.000326634,0.000269413,0.000202656,0.000514984,0.000398159,5.72205e-005,0.000360012,0.000238419,0.000157356,0.000228882,0.000340939,0.000274182,0.000319481,0.000255108,0.000214577,0.000407696,4.52996e-005,0.000345707,0.000450611,3.57628e-005,0.00023365,0.000298023,0.000419617,0.000109673,0.000402928,0.00035286,0.000302792,0.000212193,0.000457764,0.000317097,0.000157356,0.000383854,0.000200272,0.000369549,0.00033617,0.000283718,0.000283718,0.000305176,0.000362397,0.000269413,0.000510216,0.000126362,0.000429154,0.000326634,0.000391007,0.000183582,0.000216961,0.000174046,0.000503064,0.000169277,0.000288487,0.000290871,0.000371933

-0.00239134,-0.00242233,-0.00234366,-0.00242472,-0.00237227,-0.00243426,-0.00240326,-0.00239134,-0.00236035,-0.00239849,-0.00239611,-0.00239372,-0.00244856,-0.00234604,-0.00235558,-0.0024581,-0.00237703,-0.00233889,-0.0023818,-0.00243664,-0.00236511,-0.00240565,-0.00244141,-0.00229359,-0.00241757,-0.00239611,-0.00243902,-0.00243902,-0.0024724,-0.00243187,-0.00240326,-0.00240326,-0.00238419,-0.00231028,-0.00240565,-0.00239611,-0.00234604,-0.00238896,-0.00232697,-0.00239134,-0.00237703,-0.00233889,-0.00241518,-0.00231981,-0.00243664,-0.00243187,-0.00244141,-0.0023675,-0.00246763,-0.00237465,-0.00246287,-0.00244618,-0.0024724,-0.00236511,-0.00244618,-0.00234604,-0.00241041,-0.00244618,-0.00244141,-0.00231981,-0.00228882,-0.00237942,-0.00235081,-0.00237465,-0.00241757,-0.00237942,-0.0023675,-0.00236988,-0.00248432,-0.00238896,-0.00239372,-0.0024128,-0.00244618,-0.00243902,-0.00241995,-0.00241518,-0.00243187,-0.0023675,-0.00236511,-0.00229597,-0.00229836,-0.00241041,-0.00235319,-0.00236988,-0.00245333,-0.00244856,-0.00238896,-0.00240326,-0.00244856,-0.00245094,-0.0023222,-0.00233889,-0.00242949,-0.00232935,-0.00239134,-0.00245094,-0.00244618,-0.00234842,-0.00236988,-0.00241757
History:
0
0
