ProDataStore
Tue Apr 29 14:11:41 2014
Remarks:
5
#HT (Fluorescence channel): 429.993
#HT (Absorbance channel): 430
#Samples per point: 8000
#Sample period: 12.5 us
#Temperature: 22.66 C
0
Properties:
1
Fluorescence -dual
Dimensions:
3
Time -ovs 
100
0.1,0.2,0.3,0.4,0.5,0.6,0.7,0.8,0.9,1,1.1,1.2,1.3,1.4,1.5,1.6,1.7,1.8,1.9,2,2.1,2.2,2.3,2.4,2.5,2.6,2.7,2.8,2.9,3,3.1,3.2,3.3,3.4,3.5,3.6,3.7,3.8,3.9,4,4.1,4.2,4.3,4.4,4.5,4.6,4.7,4.8,4.9,5,5.1,5.2,5.3,5.4,5.5,5.6,5.7,5.8,5.9,6,6.1,6.2,6.3,6.4,6.5,6.6,6.7,6.8,6.9,7,7.1,7.2,7.3,7.4,7.5,7.6,7.7,7.8,7.9,8,8.1,8.2,8.3,8.4,8.5,8.6,8.7,8.8,8.9,9,9.1,9.2,9.3,9.4,9.5,9.6,9.7,9.8,9.9,10

Wavelength -iter
1
250

Channel
2
3,1



-0.00170708,-0.00169754,-0.00173807,-0.00169516,-0.00170231,-0.00173569,-0.001688,-0.00174284,-0.00172138,-0.00171185,-0.00173569,-0.001719,-0.001719,-0.00168324,-0.00169993,-0.00169277,-0.001719,-0.00179052,-0.00166178,-0.00172377,-0.00169754,-0.00167608,-0.0017643,-0.00173807,-0.00175238,-0.00176907,-0.00172615,-0.00176668,-0.00172854,-0.00174761,-0.00168085,-0.00172854,-0.00171423,-0.00173807,-0.00173092,-0.00169516,-0.001688,-0.00172615,-0.0017643,-0.001719,-0.001719,-0.0017333,-0.00175476,-0.00173092,-0.00172377,-0.00169754,-0.00167847,-0.00174761,-0.00173569,-0.00174523,-0.00174523,-0.00175953,-0.00170946,-0.0017333,-0.00172615,-0.00166416,-0.00169516,-0.00172615,-0.00171423,-0.00169039,-0.00168085,-0.00170469,-0.00172138,-0.00169039,-0.00174523,-0.00171185,-0.00170946,-0.00172615,-0.00171423,-0.00168085,-0.001719,-0.00174046,-0.00174999,-0.00171423,-0.00172377,-0.00171662,-0.00175238,-0.00174284,-0.00175238,-0.00170469,-0.00179052,-0.00175715,-0.00169277,-0.00166416,-0.00171662,-0.0017786,-0.00172377,-0.00172138,-0.00169754,-0.00174523,-0.00171662,-0.00171662,-0.00172615,-0.00169993,-0.00177622,-0.00170469,-0.00176668,-0.00173092,-0.00176668,-0.0017333

-0.00309706,-0.00309468,-0.00310421,-0.00311136,-0.00311136,-0.00309944,-0.00312805,-0.00308991,-0.0031066,-0.00311136,-0.00313044,-0.00307322,-0.00312567,-0.00308514,-0.00308752,-0.00310898,-0.00310421,-0.00312567,-0.00311136,-0.00310183,-0.00311852,-0.00308752,-0.00313044,-0.00309706,-0.00311613,-0.00309706,-0.00310421,-0.00309229,-0.00309944,-0.00309706,-0.00311136,-0.00309706,-0.00308752,-0.00311136,-0.00311852,-0.00309468,-0.00313282,-0.00309468,-0.00308037,-0.00310421,-0.00309468,-0.00310898,-0.00309944,-0.00311375,-0.00309706,-0.00312567,-0.0031066,-0.00313282,-0.00311613,-0.00310421,-0.00310183,-0.00309468,-0.00311613,-0.00311613,-0.00312329,-0.0031066,-0.00310183,-0.00311375,-0.00313044,-0.00312805,-0.00312329,-0.00309944,-0.0031209,-0.00312805,-0.00309706,-0.00310898,-0.00313282,-0.0031209,-0.00309944,-0.00312805,-0.00311136,-0.00311613,-0.00312329,-0.0031209,-0.00309468,-0.00312567,-0.00312805,-0.00309468,-0.00311852,-0.00309706,-0.00312567,-0.00314236,-0.00311852,-0.0031066,-0.00311136,-0.00311613,-0.00311852,-0.00311852,-0.00313759,-0.0031066,-0.00311375,-0.00311136,-0.00311136,-0.00311136,-0.00310898,-0.00311375,-0.00310898,-0.00309944,-0.00309944,-0.00311852
History:
0
0
