ProDataStore
Tue Apr 29 13:55:08 2014
Remarks:
5
#HT (Fluorescence channel): 899.994
#HT (Absorbance channel): 900
#Samples per point: 8000
#Sample period: 12.5 us
#Temperature: 22.71 C
0
Properties:
1
Fluorescence -dual
Dimensions:
3
Time -ovs 
100
0.1,0.2,0.3,0.4,0.5,0.6,0.7,0.8,0.9,1,1.1,1.2,1.3,1.4,1.5,1.6,1.7,1.8,1.9,2,2.1,2.2,2.3,2.4,2.5,2.6,2.7,2.8,2.9,3,3.1,3.2,3.3,3.4,3.5,3.6,3.7,3.8,3.9,4,4.1,4.2,4.3,4.4,4.5,4.6,4.7,4.8,4.9,5,5.1,5.2,5.3,5.4,5.5,5.6,5.7,5.8,5.9,6,6.1,6.2,6.3,6.4,6.5,6.6,6.7,6.8,6.9,7,7.1,7.2,7.3,7.4,7.5,7.6,7.7,7.8,7.9,8,8.1,8.2,8.3,8.4,8.5,8.6,8.7,8.8,8.9,9,9.1,9.2,9.3,9.4,9.5,9.6,9.7,9.8,9.9,10

Wavelength -iter
1
250

Channel
2
3,1



0.551789,0.591269,0.574036,0.576063,0.588627,0.566357,0.564087,0.576919,0.565629,0.567544,0.581317,0.600312,0.584617,0.559366,0.586398,0.562578,0.564955,0.566557,0.604191,0.605815,0.593975,0.565482,0.585859,0.557981,0.572927,0.545075,0.574756,0.568285,0.576361,0.552102,0.550664,0.61512,0.574737,0.578742,0.592106,0.574665,0.560792,0.580731,0.555025,0.598605,0.549663,0.564025,0.577362,0.581205,0.573752,0.584426,0.555911,0.556665,0.545509,0.595494,0.583382,0.594809,0.577956,0.558174,0.561574,0.552552,0.574408,0.587767,0.556903,0.598736,0.584259,0.591155,0.588875,0.556753,0.57421,0.573562,0.562702,0.597485,0.578664,0.575052,0.599633,0.600257,0.589338,0.541473,0.561486,0.545307,0.590182,0.572172,0.557573,0.546105,0.572389,0.56324,0.559826,0.577357,0.562611,0.568054,0.541771,0.542527,0.550409,0.586191,0.58333,0.561605,0.62646,0.597198,0.59521,0.597012,0.562594,0.541201,0.579546,0.544014

0.415452,0.400443,0.357135,0.376661,0.405166,0.365889,0.390537,0.40457,0.386331,0.354767,0.40998,0.37977,0.376582,0.330351,0.38095,0.394388,0.379935,0.370035,0.361727,0.370624,0.288048,0.333958,0.372577,0.381995,0.380872,0.320156,0.356519,0.350783,0.360029,0.347059,0.370665,0.348354,0.359617,0.366223,0.362339,0.370128,0.363956,0.37117,0.363565,0.358873,0.372863,0.379083,0.313232,0.372777,0.340648,0.363775,0.364764,0.368731,0.390995,0.346711,0.375338,0.343924,0.350135,0.372875,0.373717,0.369516,0.369087,0.357652,0.326231,0.35615,0.373068,0.348499,0.364008,0.3611,0.343297,0.382357,0.337699,0.35146,0.406912,0.3931,0.379534,0.368815,0.343623,0.371952,0.375748,0.409069,0.377884,0.372725,0.42373,0.362628,0.366092,0.398407,0.334599,0.377109,0.379553,0.394283,0.389877,0.394089,0.390382,0.424989,0.403056,0.371542,0.412121,0.391002,0.391469,0.377262,0.390253,0.407925,0.414148,0.368421
History:
0
0
