ProDataStore
Tue Apr 29 14:15:54 2014
Remarks:
5
#HT (Fluorescence channel): 309.998
#HT (Absorbance channel): 310
#Samples per point: 8000
#Sample period: 12.5 us
#Temperature: 22.66 C
0
Properties:
1
Fluorescence -dual
Dimensions:
3
Time -ovs 
100
0.1,0.2,0.3,0.4,0.5,0.6,0.7,0.8,0.9,1,1.1,1.2,1.3,1.4,1.5,1.6,1.7,1.8,1.9,2,2.1,2.2,2.3,2.4,2.5,2.6,2.7,2.8,2.9,3,3.1,3.2,3.3,3.4,3.5,3.6,3.7,3.8,3.9,4,4.1,4.2,4.3,4.4,4.5,4.6,4.7,4.8,4.9,5,5.1,5.2,5.3,5.4,5.5,5.6,5.7,5.8,5.9,6,6.1,6.2,6.3,6.4,6.5,6.6,6.7,6.8,6.9,7,7.1,7.2,7.3,7.4,7.5,7.6,7.7,7.8,7.9,8,8.1,8.2,8.3,8.4,8.5,8.6,8.7,8.8,8.9,9,9.1,9.2,9.3,9.4,9.5,9.6,9.7,9.8,9.9,10

Wavelength -iter
1
250

Channel
2
3,1



-0.00243187,-0.00243664,-0.0024271,-0.00243187,-0.00241995,-0.00243187,-0.00242949,-0.00243187,-0.00242472,-0.00242233,-0.00241757,-0.00241518,-0.00243664,-0.00241757,-0.00241757,-0.00242233,-0.00241757,-0.00243426,-0.00241518,-0.00242233,-0.00242233,-0.00242949,-0.00241995,-0.00243187,-0.0024271,-0.00241757,-0.00243187,-0.00242949,-0.00242233,-0.00242472,-0.00243187,-0.00243187,-0.00241995,-0.00242949,-0.00242472,-0.00243426,-0.00242949,-0.00243902,-0.00243426,-0.00243664,-0.00242949,-0.00243426,-0.00243187,-0.0024271,-0.00242472,-0.00243902,-0.00243187,-0.00243664,-0.00243902,-0.00245333,-0.00243664,-0.00243664,-0.00242949,-0.00243664,-0.00244856,-0.0024271,-0.00242472,-0.00244379,-0.00245094,-0.00243187,-0.00245333,-0.00244141,-0.00245094,-0.00244856,-0.00243426,-0.00245333,-0.00243664,-0.00244379,-0.00245333,-0.00244379,-0.00244856,-0.00244856,-0.00244141,-0.00245571,-0.00245333,-0.00244856,-0.00244856,-0.00244856,-0.00244856,-0.00244379,-0.0024581,-0.00245333,-0.00244618,-0.00244856,-0.00245571,-0.00245094,-0.00245333,-0.00245333,-0.00246287,-0.00245571,-0.00246287,-0.00246525,-0.00246525,-0.00246525,-0.0024581,-0.00245094,-0.00244856,-0.00244618,-0.00243902,-0.00244141

-0.00327111,-0.00326395,-0.00327111,-0.00328303,-0.00327111,-0.00328064,-0.00327826,-0.00327826,-0.00327111,-0.00328541,-0.00326395,-0.00326634,-0.00327587,-0.00327587,-0.00328303,-0.00327111,-0.00329018,-0.00326634,-0.00328064,-0.00328541,-0.00328064,-0.00327111,-0.00328541,-0.00328303,-0.00327349,-0.00328303,-0.00328541,-0.00328541,-0.00328064,-0.00328779,-0.00327587,-0.00329256,-0.00329018,-0.00328064,-0.00328779,-0.00326872,-0.00327111,-0.00327111,-0.00328541,-0.00327826,-0.00328303,-0.00329018,-0.00328064,-0.00328303,-0.00329018,-0.00326395,-0.00328779,-0.00328064,-0.00328064,-0.00326634,-0.00326634,-0.00328779,-0.00328064,-0.00327349,-0.00327826,-0.00327587,-0.00328541,-0.00328064,-0.00329495,-0.00327587,-0.00329018,-0.00327826,-0.00328541,-0.00329495,-0.00327587,-0.00328779,-0.00328064,-0.00329256,-0.00327587,-0.00326395,-0.00327111,-0.00327587,-0.00328064,-0.00327349,-0.00328779,-0.00326634,-0.00328541,-0.00328064,-0.00326872,-0.00327349,-0.00329733,-0.00328303,-0.00327826,-0.00327111,-0.00326395,-0.00326395,-0.00326157,-0.00326395,-0.00326157,-0.00327826,-0.00325442,-0.00327111,-0.00325918,-0.00325442,-0.00326395,-0.00325442,-0.00325442,-0.00325203,-0.00326157,-0.0032568
History:
0
0
