ProDataStore
Tue Apr 29 14:03:56 2014
Remarks:
5
#HT (Fluorescence channel): 649.994
#HT (Absorbance channel): 650
#Samples per point: 8000
#Sample period: 12.5 us
#Temperature: 22.71 C
0
Properties:
1
Fluorescence -dual
Dimensions:
3
Time -ovs 
100
0.1,0.2,0.3,0.4,0.5,0.6,0.7,0.8,0.9,1,1.1,1.2,1.3,1.4,1.5,1.6,1.7,1.8,1.9,2,2.1,2.2,2.3,2.4,2.5,2.6,2.7,2.8,2.9,3,3.1,3.2,3.3,3.4,3.5,3.6,3.7,3.8,3.9,4,4.1,4.2,4.3,4.4,4.5,4.6,4.7,4.8,4.9,5,5.1,5.2,5.3,5.4,5.5,5.6,5.7,5.8,5.9,6,6.1,6.2,6.3,6.4,6.5,6.6,6.7,6.8,6.9,7,7.1,7.2,7.3,7.4,7.5,7.6,7.7,7.8,7.9,8,8.1,8.2,8.3,8.4,8.5,8.6,8.7,8.8,8.9,9,9.1,9.2,9.3,9.4,9.5,9.6,9.7,9.8,9.9,10

Wavelength -iter
1
250

Channel
2
3,1



0.0207472,0.0211239,0.0206876,0.020783,0.0200009,0.0198674,0.0208259,0.0212336,0.0214005,0.0199533,0.0205207,0.0204277,0.0187016,0.0195623,0.0202656,0.0202489,0.0200939,0.0178743,0.0203657,0.0188398,0.0193811,0.0198651,0.0199938,0.0198555,0.0220108,0.0214744,0.0210714,0.0195575,0.0194574,0.0210548,0.0205636,0.0210142,0.0209236,0.0198507,0.0205541,0.0203657,0.0199437,0.0196004,0.0192571,0.0195241,0.0196958,0.0204659,0.0197697,0.0208354,0.0193882,0.0200296,0.0200391,0.0196099,0.0202704,0.0206089,0.0195384,0.0190997,0.0201798,0.0224614,0.0207114,0.0194836,0.0210142,0.0209856,0.0193715,0.0188446,0.0208807,0.0200391,0.0204563,0.0210476,0.0198889,0.0194383,0.0198007,0.0185204,0.0190878,0.0200391,0.0208545,0.0184178,0.0207877,0.0193596,0.0206733,0.0201154,0.020411,0.0200153,0.0218487,0.0202561,0.0196576,0.0203753,0.0199223,0.0192595,0.0206328,0.0187755,0.0211454,0.0208807,0.0212383,0.0193834,0.0203419,0.0197649,0.0194764,0.0194788,0.0207782,0.0204921,0.0191879,0.0198293,0.0195813,0.0221062

0.00417233,0.00348807,0.00402451,0.0043273,0.0043726,0.00394583,0.00420809,0.00517369,0.00433207,0.00422716,0.00426531,0.00425577,0.00478745,0.00433207,0.00435114,0.00472308,0.00446797,0.00456095,0.00461579,0.00429154,0.00483036,0.0045085,0.00380993,0.00407934,0.00397206,0.00398398,0.00462771,0.00427246,0.00447989,0.00402689,0.00494719,0.00417471,0.00431538,0.00471592,0.00385762,0.0041318,0.00465632,0.00458956,0.00388861,0.00386715,0.00416994,0.00485421,0.00437022,0.00411034,0.00445605,0.00508786,0.00452996,0.00429392,0.00452996,0.00455857,0.00463009,0.00527859,0.00475169,0.0058508,0.00623703,0.00562668,0.00584603,0.00577689,0.00566006,0.00563145,0.0061369,0.0056386,0.00623942,0.0066948,0.0067544,0.00584126,0.00633955,0.00608445,0.00550747,0.0060606,0.00573874,0.0063777,0.00578642,0.00621081,0.00574828,0.00577689,0.00639916,0.00584603,0.00602723,0.00599146,0.00647068,0.00709534,0.00556231,0.00643492,0.00549078,0.00607729,0.00615836,0.00599862,0.00607968,0.00602246,0.00560046,0.00638485,0.00538826,0.00532151,0.00576735,0.00593186,0.00605822,0.00555516,0.00597477,0.00561953
History:
0
0
