ProDataStore
Tue Apr 29 14:18:01 2014
Remarks:
5
#HT (Fluorescence channel): 250
#HT (Absorbance channel): 250
#Samples per point: 8000
#Sample period: 12.5 us
#Temperature: 22.66 C
0
Properties:
1
Fluorescence -dual
Dimensions:
3
Time -ovs 
100
0.1,0.2,0.3,0.4,0.5,0.6,0.7,0.8,0.9,1,1.1,1.2,1.3,1.4,1.5,1.6,1.7,1.8,1.9,2,2.1,2.2,2.3,2.4,2.5,2.6,2.7,2.8,2.9,3,3.1,3.2,3.3,3.4,3.5,3.6,3.7,3.8,3.9,4,4.1,4.2,4.3,4.4,4.5,4.6,4.7,4.8,4.9,5,5.1,5.2,5.3,5.4,5.5,5.6,5.7,5.8,5.9,6,6.1,6.2,6.3,6.4,6.5,6.6,6.7,6.8,6.9,7,7.1,7.2,7.3,7.4,7.5,7.6,7.7,7.8,7.9,8,8.1,8.2,8.3,8.4,8.5,8.6,8.7,8.8,8.9,9,9.1,9.2,9.3,9.4,9.5,9.6,9.7,9.8,9.9,10

Wavelength -iter
1
250

Channel
2
3,1



-0.00258208,-0.00260115,-0.002594,-0.00258923,-0.00259638,-0.00260592,-0.00258446,-0.0026083,-0.00258684,-0.00259876,-0.002594,-0.00259161,-0.00258923,-0.00259876,-0.00258208,-0.00257731,-0.00258684,-0.00258208,-0.00258923,-0.00257969,-0.00258684,-0.00258208,-0.00258208,-0.00258208,-0.00257492,-0.00257731,-0.00258446,-0.00257015,-0.00258446,-0.00257254,-0.00259161,-0.00257015,-0.00258684,-0.00257969,-0.00259161,-0.00257969,-0.00258684,-0.002594,-0.00259638,-0.00259161,-0.00258923,-0.00257969,-0.00259161,-0.00257492,-0.00258923,-0.00258684,-0.00259161,-0.00259161,-0.00258208,-0.00258208,-0.00258684,-0.00258446,-0.00258923,-0.00257969,-0.002594,-0.00257969,-0.00258208,-0.00257254,-0.00257731,-0.00256777,-0.00256777,-0.00257492,-0.00258446,-0.00257731,-0.00257492,-0.00257254,-0.00257731,-0.00258446,-0.00259161,-0.00258208,-0.00257969,-0.00257015,-0.00257969,-0.00257731,-0.00257492,-0.00257492,-0.00257731,-0.00257969,-0.00257969,-0.00257731,-0.00257492,-0.00257731,-0.00256777,-0.00258684,-0.00258446,-0.00258923,-0.00257969,-0.00257015,-0.00258684,-0.00257492,-0.00256777,-0.00256539,-0.00256539,-0.00257969,-0.00256539,-0.00256062,-0.00256539,-0.00256062,-0.00256539,-0.002563

-0.003407,-0.00341654,-0.00340462,-0.00342608,-0.00342369,-0.00341654,-0.00341177,-0.00341177,-0.003407,-0.00340224,-0.003407,-0.00339985,-0.00341416,-0.00340939,-0.00341654,-0.00339985,-0.00340939,-0.00340939,-0.00341892,-0.00339985,-0.00342608,-0.00340939,-0.00340462,-0.00340939,-0.00340462,-0.00341416,-0.003407,-0.00340224,-0.00339031,-0.00341177,-0.00340224,-0.00341177,-0.00340462,-0.00340224,-0.00340462,-0.00341416,-0.00340224,-0.00340462,-0.00340224,-0.00340224,-0.00338555,-0.00338555,-0.00338555,-0.00338793,-0.0033927,-0.00338316,-0.00338793,-0.00339031,-0.0033927,-0.00339747,-0.00338078,-0.00338793,-0.00338316,-0.00339747,-0.00338555,-0.00339508,-0.00338793,-0.00337601,-0.00338793,-0.00338793,-0.00337839,-0.00339031,-0.00338793,-0.00340462,-0.00338316,-0.00339747,-0.00339985,-0.00341177,-0.00338793,-0.00340224,-0.00338793,-0.00340224,-0.00338793,-0.0033927,-0.00340224,-0.0033927,-0.00340224,-0.00338793,-0.00339031,-0.00340224,-0.00340462,-0.0033927,-0.00339508,-0.00339985,-0.00337601,-0.00339031,-0.00337839,-0.00340462,-0.00338078,-0.00340224,-0.00338555,-0.00337839,-0.00339508,-0.00338316,-0.00338555,-0.00338555,-0.00337601,-0.00338316,-0.00337363,-0.0033927
History:
0
0
