ProDataStore
Tue Apr 29 14:19:04 2014
Remarks:
5
#HT (Fluorescence channel): 220.001
#HT (Absorbance channel): 220
#Samples per point: 8000
#Sample period: 12.5 us
#Temperature: 22.66 C
0
Properties:
1
Fluorescence -dual
Dimensions:
3
Time -ovs 
100
0.1,0.2,0.3,0.4,0.5,0.6,0.7,0.8,0.9,1,1.1,1.2,1.3,1.4,1.5,1.6,1.7,1.8,1.9,2,2.1,2.2,2.3,2.4,2.5,2.6,2.7,2.8,2.9,3,3.1,3.2,3.3,3.4,3.5,3.6,3.7,3.8,3.9,4,4.1,4.2,4.3,4.4,4.5,4.6,4.7,4.8,4.9,5,5.1,5.2,5.3,5.4,5.5,5.6,5.7,5.8,5.9,6,6.1,6.2,6.3,6.4,6.5,6.6,6.7,6.8,6.9,7,7.1,7.2,7.3,7.4,7.5,7.6,7.7,7.8,7.9,8,8.1,8.2,8.3,8.4,8.5,8.6,8.7,8.8,8.9,9,9.1,9.2,9.3,9.4,9.5,9.6,9.7,9.8,9.9,10

Wavelength -iter
1
250

Channel
2
3,1



-0.00264645,-0.00267506,-0.00266791,-0.00267029,-0.00266314,-0.00267029,-0.00267267,-0.00266552,-0.00267267,-0.00267267,-0.00267267,-0.00267029,-0.00266791,-0.00267983,-0.00267029,-0.00267267,-0.00266552,-0.00266791,-0.00266791,-0.00267029,-0.00267029,-0.00267506,-0.00267267,-0.00265837,-0.00266552,-0.00266314,-0.00266791,-0.00266552,-0.00266314,-0.00266314,-0.00266075,-0.00266791,-0.00267983,-0.00266791,-0.00267267,-0.0026536,-0.00268221,-0.00267506,-0.00268698,-0.00266552,-0.00266791,-0.00267744,-0.00267744,-0.0026846,-0.00267267,-0.00267744,-0.00266791,-0.00268698,-0.00268221,-0.00266314,-0.00267506,-0.00267267,-0.00266314,-0.00266075,-0.0026846,-0.00267029,-0.00267506,-0.00267983,-0.00267744,-0.00267029,-0.00266552,-0.00265598,-0.00266791,-0.00266791,-0.00266552,-0.00267029,-0.00266075,-0.00266314,-0.00265122,-0.00267267,-0.00266791,-0.00266314,-0.00266552,-0.00267983,-0.00266791,-0.00266791,-0.00267506,-0.00267267,-0.00267744,-0.00266791,-0.00266552,-0.00266075,-0.00266075,-0.00265122,-0.00267267,-0.00266314,-0.00266314,-0.00266075,-0.00264883,-0.00267029,-0.00267029,-0.00266075,-0.00266552,-0.00266075,-0.00265598,-0.00266314,-0.00267267,-0.00266552,-0.00267506,-0.00265598

-0.00335932,-0.00337601,-0.0033617,-0.00338078,-0.00337363,-0.00335217,-0.00335932,-0.00336886,-0.00336647,-0.00336647,-0.00335217,-0.00334978,-0.00336409,-0.00335455,-0.0033617,-0.00335932,-0.00336409,-0.00337124,-0.00335455,-0.00336409,-0.00336409,-0.00335455,-0.00335932,-0.00335694,-0.00336409,-0.00335694,-0.00335694,-0.00336409,-0.0033617,-0.00335932,-0.00336647,-0.00334263,-0.00336647,-0.00336647,-0.00336886,-0.00337839,-0.00336886,-0.00335932,-0.00335932,-0.00335932,-0.00336647,-0.00336886,-0.00335932,-0.00335217,-0.00336647,-0.0033617,-0.00336409,-0.00335694,-0.00335217,-0.00335455,-0.00336647,-0.00335694,-0.00336647,-0.00335932,-0.00335694,-0.00338316,-0.00336647,-0.00336409,-0.00334978,-0.00335217,-0.00336409,-0.00334978,-0.00334501,-0.00335932,-0.00335932,-0.00336647,-0.00335217,-0.0033617,-0.00335694,-0.0033617,-0.00334978,-0.00336647,-0.00336409,-0.00336647,-0.00335455,-0.00335932,-0.00336886,-0.0033617,-0.00336409,-0.00335694,-0.00336886,-0.00335932,-0.0033617,-0.00336409,-0.0033617,-0.00334501,-0.00337839,-0.00335455,-0.00335217,-0.00335694,-0.00337124,-0.00335217,-0.00335455,-0.0033617,-0.0033617,-0.0033617,-0.00336409,-0.00336409,-0.00336409,-0.0033617
History:
0
0
