ProDataStore
Tue Apr 29 14:07:27 2014
Remarks:
5
#HT (Fluorescence channel): 550.003
#HT (Absorbance channel): 550
#Samples per point: 8000
#Sample period: 12.5 us
#Temperature: 22.71 C
0
Properties:
1
Fluorescence -dual
Dimensions:
3
Time -ovs 
100
0.1,0.2,0.3,0.4,0.5,0.6,0.7,0.8,0.9,1,1.1,1.2,1.3,1.4,1.5,1.6,1.7,1.8,1.9,2,2.1,2.2,2.3,2.4,2.5,2.6,2.7,2.8,2.9,3,3.1,3.2,3.3,3.4,3.5,3.6,3.7,3.8,3.9,4,4.1,4.2,4.3,4.4,4.5,4.6,4.7,4.8,4.9,5,5.1,5.2,5.3,5.4,5.5,5.6,5.7,5.8,5.9,6,6.1,6.2,6.3,6.4,6.5,6.6,6.7,6.8,6.9,7,7.1,7.2,7.3,7.4,7.5,7.6,7.7,7.8,7.9,8,8.1,8.2,8.3,8.4,8.5,8.6,8.7,8.8,8.9,9,9.1,9.2,9.3,9.4,9.5,9.6,9.7,9.8,9.9,10

Wavelength -iter
1
250

Channel
2
3,1



0.00304222,0.00294209,0.002563,0.00276566,0.00311136,0.0029397,0.00318051,0.00272513,0.00308752,0.00324488,0.00298739,0.00281334,0.00292301,0.00256777,0.00303984,0.00275612,0.00256062,0.00284195,0.00313044,0.00272989,0.0024128,0.00264645,0.00321627,0.0029707,0.00315666,0.00272513,0.00277996,0.00314713,0.0032115,0.00276327,0.00275135,0.0026989,0.00272274,0.00300646,0.00272751,0.00289202,0.00314474,0.0030756,0.00290871,0.00267744,0.00236988,0.00293017,0.00311375,0.00290394,0.00285626,0.00286341,0.00298262,0.00286818,0.00288964,0.00280857,0.00278235,0.00289917,0.00261545,0.00285149,0.00283718,0.00280857,0.00270605,0.00271082,0.00293017,0.00267983,0.00275135,0.00254393,0.00288487,0.00264883,0.00288725,0.00307083,0.00278473,0.00270605,0.0028944,0.00276804,0.00296593,0.00273228,0.00306368,0.00261307,0.00291109,0.00286579,0.00266314,0.00240565,0.00317097,0.0028038,0.00299454,0.00267744,0.00257731,0.00289202,0.00301123,0.00289917,0.00285864,0.00270128,0.00283003,0.00290871,0.00266791,0.0028801,0.00262022,0.0026393,0.00263691,0.00263453,0.00267744,0.00237465,0.00272513,0.00293017

-0.00165463,-0.00167132,-0.00157833,-0.00148058,-0.00156164,-0.00160456,-0.0016284,-0.0015378,-0.00154257,-0.00160456,-0.00174761,-0.00178099,-0.00152111,-0.00157595,-0.0015688,-0.00162125,-0.00150681,-0.00166178,-0.00164032,-0.00163317,-0.00165939,-0.00168562,-0.00155926,-0.00164509,-0.00156403,-0.00168085,-0.00156403,-0.00172138,-0.00162363,-0.00157833,-0.00166178,-0.0015831,-0.00154495,-0.00142574,-0.00141144,-0.00152588,-0.00166178,-0.00155687,-0.00160456,-0.00169754,-0.0015831,-0.0014472,-0.00144482,-0.0015378,-0.00165224,-0.00165701,-0.0014925,-0.00169039,-0.00158072,-0.00164509,-0.00161648,-0.00145674,-0.00148535,-0.00164509,-0.00161409,-0.00150204,-0.00131846,-0.00154019,-0.00158072,-0.00157118,-0.00146866,-0.00155926,-0.00145912,-0.00163317,-0.00171185,-0.00145197,-0.00164271,-0.00165463,-0.00169039,-0.00172377,-0.00159741,-0.00154734,-0.00148535,-0.00160694,-0.00151157,-0.00136852,-0.00153303,-0.00148058,-0.00168562,-0.00153542,-0.00154734,-0.00153303,-0.00164986,-0.00165701,-0.00151157,-0.00162363,-0.00150681,-0.00154972,-0.00162363,-0.00145197,-0.00159979,-0.00170946,-0.00170708,-0.00149965,-0.00169993,-0.00154257,-0.00135183,-0.00156641,-0.00153065,-0.00160456
History:
0
0
