ProDataStore
Tue Apr 29 13:58:18 2014
Remarks:
5
#HT (Fluorescence channel): 809.998
#HT (Absorbance channel): 810
#Samples per point: 8000
#Sample period: 12.5 us
#Temperature: 22.71 C
0
Properties:
1
Fluorescence -dual
Dimensions:
3
Time -ovs 
100
0.1,0.2,0.3,0.4,0.5,0.6,0.7,0.8,0.9,1,1.1,1.2,1.3,1.4,1.5,1.6,1.7,1.8,1.9,2,2.1,2.2,2.3,2.4,2.5,2.6,2.7,2.8,2.9,3,3.1,3.2,3.3,3.4,3.5,3.6,3.7,3.8,3.9,4,4.1,4.2,4.3,4.4,4.5,4.6,4.7,4.8,4.9,5,5.1,5.2,5.3,5.4,5.5,5.6,5.7,5.8,5.9,6,6.1,6.2,6.3,6.4,6.5,6.6,6.7,6.8,6.9,7,7.1,7.2,7.3,7.4,7.5,7.6,7.7,7.8,7.9,8,8.1,8.2,8.3,8.4,8.5,8.6,8.7,8.8,8.9,9,9.1,9.2,9.3,9.4,9.5,9.6,9.7,9.8,9.9,10

Wavelength -iter
1
250

Channel
2
3,1



0.173762,0.176716,0.179327,0.167861,0.172777,0.181308,0.16789,0.174301,0.178869,0.179389,0.174935,0.162816,0.186296,0.174039,0.173352,0.164373,0.179246,0.170319,0.167081,0.167787,0.17324,0.175357,0.171635,0.163956,0.159502,0.17822,0.170283,0.173552,0.181441,0.175345,0.166142,0.181308,0.171793,0.179997,0.177984,0.174728,0.16741,0.17164,0.176473,0.170457,0.176582,0.177472,0.175016,0.175731,0.178406,0.168858,0.180583,0.178607,0.183094,0.17189,0.165968,0.16108,0.166931,0.172613,0.178468,0.166929,0.173359,0.167844,0.175946,0.177949,0.175903,0.176597,0.178614,0.165916,0.19048,0.174458,0.187607,0.177975,0.178237,0.171709,0.174031,0.174947,0.183785,0.170519,0.173144,0.170179,0.173752,0.173853,0.1664,0.163877,0.172186,0.182171,0.178538,0.175502,0.181255,0.181914,0.18678,0.170663,0.165763,0.177682,0.169451,0.171824,0.181065,0.181925,0.169828,0.184777,0.182519,0.177968,0.174589,0.178216

0.0965214,0.0995804,0.0978041,0.0991441,0.103281,0.100055,0.101228,0.099845,0.104008,0.0999118,0.106535,0.10339,0.0968075,0.086732,0.078671,0.0922609,0.092845,0.0860549,0.0933338,0.109086,0.0990058,0.0976325,0.0957633,0.0974632,0.0947452,0.0860119,0.101299,0.0903869,0.0816942,0.0986672,0.0912452,0.100353,0.10433,0.110052,0.106211,0.0910664,0.111616,0.0980712,0.107648,0.10808,0.100834,0.105984,0.109706,0.102685,0.108876,0.105052,0.104113,0.0915027,0.0950957,0.101965,0.100153,0.093875,0.0986767,0.0949836,0.101299,0.102806,0.0972152,0.101907,0.102251,0.0989962,0.0964618,0.0947619,0.102832,0.112443,0.101574,0.104485,0.107515,0.100212,0.103154,0.0972796,0.110149,0.100937,0.100904,0.0926257,0.0938249,0.104199,0.10438,0.100725,0.104511,0.102027,0.0996257,0.100851,0.104981,0.0998903,0.107372,0.0981928,0.113692,0.103505,0.0980116,0.100448,0.101874,0.0954033,0.0946308,0.0983716,0.100813,0.105507,0.102692,0.0989772,0.103934,0.0939871
History:
0
0
