ProDataStore
Tue Apr 29 14:04:38 2014
Remarks:
5
#HT (Fluorescence channel): 630.005
#HT (Absorbance channel): 630
#Samples per point: 8000
#Sample period: 12.5 us
#Temperature: 22.71 C
0
Properties:
1
Fluorescence -dual
Dimensions:
3
Time -ovs 
100
0.1,0.2,0.3,0.4,0.5,0.6,0.7,0.8,0.9,1,1.1,1.2,1.3,1.4,1.5,1.6,1.7,1.8,1.9,2,2.1,2.2,2.3,2.4,2.5,2.6,2.7,2.8,2.9,3,3.1,3.2,3.3,3.4,3.5,3.6,3.7,3.8,3.9,4,4.1,4.2,4.3,4.4,4.5,4.6,4.7,4.8,4.9,5,5.1,5.2,5.3,5.4,5.5,5.6,5.7,5.8,5.9,6,6.1,6.2,6.3,6.4,6.5,6.6,6.7,6.8,6.9,7,7.1,7.2,7.3,7.4,7.5,7.6,7.7,7.8,7.9,8,8.1,8.2,8.3,8.4,8.5,8.6,8.7,8.8,8.9,9,9.1,9.2,9.3,9.4,9.5,9.6,9.7,9.8,9.9,10

Wavelength -iter
1
250

Channel
2
3,1



0.0143933,0.0147033,0.0155521,0.0148296,0.0151706,0.0143814,0.0146175,0.0153589,0.0156903,0.0137925,0.0146079,0.015285,0.0162244,0.014534,0.0144959,0.0145483,0.0144935,0.0152803,0.0151539,0.0151563,0.0138974,0.0144982,0.0146699,0.0144243,0.0136542,0.0143099,0.0152516,0.0148797,0.0146771,0.0139499,0.0145555,0.0146103,0.0155473,0.0149417,0.0141025,0.0158119,0.0155258,0.0142884,0.0147367,0.0145578,0.0148463,0.0153446,0.015893,0.0147081,0.0136614,0.0153709,0.0146842,0.0150204,0.0153208,0.0159741,0.0147915,0.0145865,0.0143004,0.0144482,0.0143743,0.0145531,0.0136042,0.0149632,0.0134635,0.014782,0.0138998,0.0152207,0.015235,0.0155449,0.0160718,0.014298,0.0146866,0.0139022,0.0137425,0.0133252,0.0156641,0.0138521,0.0147152,0.0143743,0.0139594,0.0154853,0.0150776,0.0143099,0.014472,0.0153542,0.0150633,0.0145459,0.0145388,0.0153399,0.0140452,0.0150538,0.0152159,0.0144816,0.0147891,0.0146031,0.0142002,0.0136948,0.014863,0.0143933,0.0152469,0.0146198,0.0144267,0.0145626,0.0142384,0.0140977

0.00315428,0.00249386,0.00272036,0.00307799,0.00290156,0.00329256,0.00387192,0.00309944,0.00367642,0.00351191,0.00321388,0.00351191,0.0023818,0.00277043,0.00329256,0.00320673,0.00293493,0.00247717,0.00325918,0.00253201,0.00248671,0.00230313,0.00270605,0.0031209,0.00323534,0.00211239,0.00269413,0.0028801,0.0033021,0.00264168,0.00304938,0.00249148,0.00248909,0.00352621,0.00330687,0.00302553,0.00286818,0.00287056,0.00251055,0.00287533,0.00283241,0.00238419,0.00248671,0.00305176,0.00259876,0.00300646,0.00334263,0.00267983,0.00279188,0.00241041,0.00328541,0.00294686,0.00258684,0.00239611,0.00280619,0.00314236,0.00261307,0.00248432,0.00295639,0.00226021,0.00299692,0.00236273,0.00327349,0.00267744,0.00283957,0.00320435,0.00274182,0.00283003,0.00300646,0.00296831,0.00252247,0.00283957,0.0027442,0.0027895,0.00305176,0.00290871,0.00242472,0.0025177,0.00299692,0.00307322,0.00253439,0.00303745,0.00364065,0.00305891,0.00275374,0.00316382,0.00294686,0.00328303,0.00323534,0.0031066,0.0030613,0.00309229,0.00314236,0.00332117,0.00291348,0.00267267,0.00360966,0.00317097,0.00318766,0.00248671
History:
0
0
