ProDataStore
Tue Apr 29 14:16:57 2014
Remarks:
5
#HT (Fluorescence channel): 279.999
#HT (Absorbance channel): 280
#Samples per point: 8000
#Sample period: 12.5 us
#Temperature: 22.66 C
0
Properties:
1
Fluorescence -dual
Dimensions:
3
Time -ovs 
100
0.1,0.2,0.3,0.4,0.5,0.6,0.7,0.8,0.9,1,1.1,1.2,1.3,1.4,1.5,1.6,1.7,1.8,1.9,2,2.1,2.2,2.3,2.4,2.5,2.6,2.7,2.8,2.9,3,3.1,3.2,3.3,3.4,3.5,3.6,3.7,3.8,3.9,4,4.1,4.2,4.3,4.4,4.5,4.6,4.7,4.8,4.9,5,5.1,5.2,5.3,5.4,5.5,5.6,5.7,5.8,5.9,6,6.1,6.2,6.3,6.4,6.5,6.6,6.7,6.8,6.9,7,7.1,7.2,7.3,7.4,7.5,7.6,7.7,7.8,7.9,8,8.1,8.2,8.3,8.4,8.5,8.6,8.7,8.8,8.9,9,9.1,9.2,9.3,9.4,9.5,9.6,9.7,9.8,9.9,10

Wavelength -iter
1
250

Channel
2
3,1



-0.00253201,-0.00254393,-0.00253439,-0.00252962,-0.00252724,-0.00252485,-0.00253916,-0.00254631,-0.00253916,-0.00255585,-0.00254393,-0.00254393,-0.00254154,-0.00253678,-0.00254393,-0.00254154,-0.00253439,-0.00253916,-0.00253439,-0.00252962,-0.00252724,-0.00254393,-0.00253678,-0.00253439,-0.00253439,-0.00253439,-0.00253201,-0.00252009,-0.00253439,-0.00252724,-0.00253678,-0.00252009,-0.00252962,-0.00252724,-0.00252485,-0.00253678,-0.00252724,-0.00253916,-0.00252485,-0.00252962,-0.00252724,-0.00252485,-0.00254631,-0.00252962,-0.00252962,-0.00253678,-0.00253439,-0.00254631,-0.00254393,-0.00253916,-0.00253916,-0.00254393,-0.0025487,-0.0025487,-0.00253201,-0.00254631,-0.00254631,-0.00254393,-0.00253678,-0.00253678,-0.00253439,-0.00252724,-0.00253201,-0.00252962,-0.00253439,-0.0025487,-0.00253439,-0.00255823,-0.00252962,-0.00255108,-0.00255823,-0.00254393,-0.00255346,-0.00255108,-0.00255346,-0.00255108,-0.002563,-0.002563,-0.0025487,-0.00254631,-0.00255108,-0.00254631,-0.002563,-0.00255346,-0.0025487,-0.00255585,-0.00256062,-0.002563,-0.00255108,-0.00255585,-0.00256777,-0.00256539,-0.00256062,-0.00256777,-0.00255823,-0.00256539,-0.002563,-0.00256062,-0.00255823,-0.00256062

-0.00332117,-0.00333548,-0.00332594,-0.00332117,-0.00334978,-0.00334263,-0.00333071,-0.00333071,-0.00334263,-0.00333071,-0.00333786,-0.00334263,-0.00334263,-0.00333071,-0.00333786,-0.00334263,-0.00334501,-0.00332356,-0.00333548,-0.00333548,-0.00332833,-0.00333071,-0.00333548,-0.00333548,-0.00334501,-0.00332117,-0.00333309,-0.00332833,-0.00332356,-0.00332356,-0.00334263,-0.00334025,-0.00332833,-0.00334978,-0.00334025,-0.00333309,-0.00333548,-0.00334025,-0.00334263,-0.00332594,-0.00334263,-0.00332594,-0.00333548,-0.00334501,-0.00333309,-0.00333309,-0.00334501,-0.00332833,-0.00333548,-0.00334025,-0.00333548,-0.00333786,-0.0033474,-0.0033474,-0.00333786,-0.00333071,-0.00333786,-0.00332594,-0.00332117,-0.00333786,-0.00332117,-0.00332356,-0.00332356,-0.00332594,-0.00333071,-0.00333309,-0.00332833,-0.00332117,-0.00333309,-0.0033164,-0.00333309,-0.00331879,-0.00332356,-0.00331402,-0.00332356,-0.00332594,-0.00333786,-0.00332117,-0.00330687,-0.00331402,-0.00330687,-0.0033164,-0.00329256,-0.0033164,-0.00331164,-0.00330925,-0.00332594,-0.00330448,-0.00331164,-0.00332594,-0.00330925,-0.0033164,-0.00332833,-0.0033164,-0.00331879,-0.00332356,-0.00332117,-0.00330925,-0.00332833,-0.0033021
History:
0
0
