ProDataStore
Tue Apr 29 14:00:46 2014
Remarks:
5
#HT (Fluorescence channel): 740.005
#HT (Absorbance channel): 740
#Samples per point: 8000
#Sample period: 12.5 us
#Temperature: 22.71 C
0
Properties:
1
Fluorescence -dual
Dimensions:
3
Time -ovs 
100
0.1,0.2,0.3,0.4,0.5,0.6,0.7,0.8,0.9,1,1.1,1.2,1.3,1.4,1.5,1.6,1.7,1.8,1.9,2,2.1,2.2,2.3,2.4,2.5,2.6,2.7,2.8,2.9,3,3.1,3.2,3.3,3.4,3.5,3.6,3.7,3.8,3.9,4,4.1,4.2,4.3,4.4,4.5,4.6,4.7,4.8,4.9,5,5.1,5.2,5.3,5.4,5.5,5.6,5.7,5.8,5.9,6,6.1,6.2,6.3,6.4,6.5,6.6,6.7,6.8,6.9,7,7.1,7.2,7.3,7.4,7.5,7.6,7.7,7.8,7.9,8,8.1,8.2,8.3,8.4,8.5,8.6,8.7,8.8,8.9,9,9.1,9.2,9.3,9.4,9.5,9.6,9.7,9.8,9.9,10

Wavelength -iter
1
250

Channel
2
3,1



0.0695611,0.0724865,0.0684095,0.0744606,0.0740552,0.0748611,0.0721074,0.073979,0.0743986,0.0703431,0.0697327,0.0709653,0.0676919,0.0686241,0.0684643,0.0692773,0.0684381,0.0721407,0.0725222,0.0673295,0.0705576,0.069151,0.0684071,0.0662756,0.062542,0.0710106,0.0701047,0.0679851,0.0697685,0.0678659,0.0703669,0.0699878,0.0694967,0.0660015,0.0690914,0.0760246,0.0728727,0.0674916,0.0716425,0.0679184,0.0699401,0.0685621,0.0720335,0.0667882,0.0731159,0.0682617,0.0659776,0.0692487,0.0699616,0.0739503,0.0744415,0.0678015,0.0726462,0.0678707,0.070777,0.0666666,0.0672961,0.071416,0.0726224,0.0700951,0.0717354,0.0723601,0.0696993,0.0717903,0.0728369,0.0736166,0.0699211,0.0698066,0.0700617,0.072229,0.0684906,0.0727463,0.0722004,0.0709343,0.0708271,0.0723529,0.0680209,0.0677038,0.0696755,0.0710655,0.0666881,0.0748158,0.068028,0.0700021,0.0708533,0.0696159,0.0693298,0.0690699,0.072682,0.071528,0.0713802,0.0683523,0.071857,0.0690818,0.067463,0.071919,0.0730396,0.0662876,0.0691605,0.0754619

0.0346995,0.0323487,0.0320912,0.0328756,0.0294662,0.033772,0.030098,0.0330162,0.0319863,0.0341726,0.0321841,0.0329519,0.0330401,0.0329113,0.0348211,0.0338245,0.0319195,0.0337053,0.0351978,0.0330854,0.0322271,0.0310588,0.0335574,0.0325895,0.0333023,0.0301433,0.0354195,0.032959,0.0331617,0.0287128,0.0308752,0.0310612,0.031178,0.0347185,0.0315452,0.0319767,0.0327969,0.0334406,0.0306654,0.0303388,0.0320316,0.0339222,0.030303,0.0355625,0.0332761,0.0368047,0.0311208,0.0322485,0.0335145,0.0342036,0.0301409,0.0352669,0.0316406,0.0289059,0.0307298,0.0317359,0.0312042,0.029378,0.0279331,0.0294781,0.0296354,0.031488,0.028286,0.0312901,0.0312662,0.0293613,0.0317598,0.027113,0.0300598,0.0352335,0.0316024,0.030725,0.0347495,0.0298572,0.0315666,0.0306678,0.0287628,0.0309086,0.0316763,0.0319076,0.0304604,0.0324536,0.0331021,0.0324345,0.0298143,0.0350666,0.028069,0.0346828,0.0300408,0.0315333,0.0296402,0.0281048,0.0290847,0.0303126,0.0300718,0.032742,0.0302267,0.0365043,0.0357437,0.0304318
History:
0
0
