ProDataStore
Tue Apr 29 14:14:30 2014
Remarks:
5
#HT (Fluorescence channel): 350.006
#HT (Absorbance channel): 350
#Samples per point: 8000
#Sample period: 12.5 us
#Temperature: 22.66 C
0
Properties:
1
Fluorescence -dual
Dimensions:
3
Time -ovs 
100
0.1,0.2,0.3,0.4,0.5,0.6,0.7,0.8,0.9,1,1.1,1.2,1.3,1.4,1.5,1.6,1.7,1.8,1.9,2,2.1,2.2,2.3,2.4,2.5,2.6,2.7,2.8,2.9,3,3.1,3.2,3.3,3.4,3.5,3.6,3.7,3.8,3.9,4,4.1,4.2,4.3,4.4,4.5,4.6,4.7,4.8,4.9,5,5.1,5.2,5.3,5.4,5.5,5.6,5.7,5.8,5.9,6,6.1,6.2,6.3,6.4,6.5,6.6,6.7,6.8,6.9,7,7.1,7.2,7.3,7.4,7.5,7.6,7.7,7.8,7.9,8,8.1,8.2,8.3,8.4,8.5,8.6,8.7,8.8,8.9,9,9.1,9.2,9.3,9.4,9.5,9.6,9.7,9.8,9.9,10

Wavelength -iter
1
250

Channel
2
3,1



-0.00228167,-0.00231266,-0.00230551,-0.00231266,-0.00230313,-0.0022912,-0.0023222,-0.00230789,-0.00231505,-0.0023222,-0.00231505,-0.00232697,-0.0023222,-0.00231981,-0.00232458,-0.00232458,-0.00231743,-0.00231743,-0.00231743,-0.00231505,-0.00230789,-0.00231743,-0.00232458,-0.00233174,-0.00231743,-0.00232935,-0.00232458,-0.00232458,-0.00233889,-0.00233889,-0.00232697,-0.00231505,-0.00231743,-0.00231266,-0.00233412,-0.00234127,-0.00233889,-0.0023365,-0.00233412,-0.0023222,-0.00232458,-0.00233174,-0.00231743,-0.00232935,-0.0023365,-0.00232458,-0.00231743,-0.00233889,-0.00233889,-0.00232935,-0.00232697,-0.00233889,-0.00232935,-0.00231505,-0.00232697,-0.00232458,-0.00233174,-0.00232935,-0.0023365,-0.00231743,-0.00232458,-0.00233889,-0.00232935,-0.00232458,-0.00231743,-0.0023365,-0.0023365,-0.0023222,-0.0023365,-0.00232935,-0.00231266,-0.00231981,-0.00230313,-0.00231743,-0.0023222,-0.00232697,-0.00231743,-0.00232458,-0.00232935,-0.00230789,-0.00232458,-0.00231743,-0.00230551,-0.00231981,-0.00231505,-0.00231743,-0.00230789,-0.00232697,-0.00231266,-0.00233174,-0.00233174,-0.0023222,-0.00232697,-0.00232935,-0.0023222,-0.00233174,-0.00232935,-0.00231743,-0.00233174,-0.0023222

-0.00329972,-0.00329972,-0.00329972,-0.00329256,-0.00331164,-0.00331402,-0.00329256,-0.00329733,-0.0033021,-0.00329733,-0.00330448,-0.00330448,-0.0033021,-0.00330448,-0.00329972,-0.00330448,-0.00329256,-0.00328541,-0.00329256,-0.00329495,-0.0033021,-0.0033021,-0.00330687,-0.00331402,-0.00329733,-0.00331402,-0.0033021,-0.0033021,-0.00329495,-0.00330687,-0.00330448,-0.00331164,-0.00330687,-0.00329495,-0.00331879,-0.00329733,-0.00329972,-0.00329733,-0.00329495,-0.00329733,-0.00329972,-0.0033164,-0.0033164,-0.00330448,-0.0033164,-0.00331402,-0.00329972,-0.00331164,-0.00331164,-0.00332833,-0.00331164,-0.00332356,-0.00332833,-0.00332117,-0.00331402,-0.00332356,-0.00331164,-0.0033021,-0.00331164,-0.00330448,-0.00332356,-0.00330448,-0.00330448,-0.0033164,-0.00330687,-0.00330925,-0.00332117,-0.00330687,-0.00331402,-0.00331402,-0.00332117,-0.00331402,-0.0033164,-0.00332356,-0.00333071,-0.00332356,-0.00330925,-0.0033021,-0.0033021,-0.00330687,-0.00329972,-0.00329733,-0.00331402,-0.00332356,-0.00330448,-0.00329972,-0.0033021,-0.0033164,-0.00330687,-0.00330925,-0.00331402,-0.00329018,-0.0033164,-0.00329733,-0.00329495,-0.0033021,-0.00330448,-0.00330687,-0.00329256,-0.00330925
History:
0
0
