ProDataStore
Tue Apr 29 14:04:17 2014
Remarks:
5
#HT (Fluorescence channel): 639.999
#HT (Absorbance channel): 640
#Samples per point: 8000
#Sample period: 12.5 us
#Temperature: 22.71 C
0
Properties:
1
Fluorescence -dual
Dimensions:
3
Time -ovs 
100
0.1,0.2,0.3,0.4,0.5,0.6,0.7,0.8,0.9,1,1.1,1.2,1.3,1.4,1.5,1.6,1.7,1.8,1.9,2,2.1,2.2,2.3,2.4,2.5,2.6,2.7,2.8,2.9,3,3.1,3.2,3.3,3.4,3.5,3.6,3.7,3.8,3.9,4,4.1,4.2,4.3,4.4,4.5,4.6,4.7,4.8,4.9,5,5.1,5.2,5.3,5.4,5.5,5.6,5.7,5.8,5.9,6,6.1,6.2,6.3,6.4,6.5,6.6,6.7,6.8,6.9,7,7.1,7.2,7.3,7.4,7.5,7.6,7.7,7.8,7.9,8,8.1,8.2,8.3,8.4,8.5,8.6,8.7,8.8,8.9,9,9.1,9.2,9.3,9.4,9.5,9.6,9.7,9.8,9.9,10

Wavelength -iter
1
250

Channel
2
3,1



0.0168634,0.0173283,0.0177789,0.0178552,0.0184417,0.0174761,0.0184131,0.0170708,0.0177693,0.0179911,0.0171566,0.0160599,0.0183296,0.016942,0.0180698,0.0174999,0.017221,0.0172305,0.0171948,0.018003,0.0159717,0.0171828,0.0156427,0.0184989,0.0164437,0.016532,0.0166011,0.0170803,0.0174785,0.0171733,0.0160098,0.0169993,0.0178242,0.0181866,0.0163365,0.0175166,0.0169492,0.0161362,0.0161386,0.0165486,0.0182653,0.0173259,0.0181651,0.0175953,0.0186229,0.0168896,0.0169587,0.0172234,0.0177837,0.017283,0.0179505,0.0177622,0.0175667,0.0172901,0.0172401,0.0165415,0.0166869,0.0171948,0.0175834,0.0172711,0.0156212,0.0168681,0.0172043,0.0173402,0.0183773,0.0175357,0.0159311,0.0172758,0.0168443,0.0166774,0.0179601,0.0173783,0.0175858,0.0161791,0.0169206,0.0166869,0.0180268,0.0169993,0.0175429,0.0172091,0.0161243,0.0157476,0.0174976,0.0165081,0.0179029,0.0159884,0.0169969,0.0178194,0.0169087,0.0157738,0.0164247,0.0164771,0.0178385,0.0168753,0.017407,0.0170779,0.0180984,0.0180888,0.0182557,0.0178528

0.00401974,0.00408888,0.00422716,0.00440121,0.00466109,0.00454665,0.00467778,0.00424862,0.0040555,0.00431061,0.00424147,0.00377178,0.00440121,0.00462056,0.00441552,0.00442028,0.00427485,0.00445128,0.00475169,0.00399113,0.00383854,0.00410557,0.00384331,0.00391245,0.0042224,0.00416518,0.00460387,0.00378609,0.00424624,0.00356198,0.0042677,0.0041318,0.00345469,0.00414849,0.00462056,0.00441313,0.00373841,0.0046897,0.00434876,0.00436306,0.00493527,0.00389338,0.00417233,0.00410557,0.00360728,0.00346422,0.00383854,0.00340939,0.00398875,0.00342846,0.00382662,0.0037551,0.00383139,0.00357628,0.0037241,0.00386,0.00380993,0.00396252,0.00427962,0.00389576,0.00360966,0.00441075,0.00376702,0.00423193,0.00391484,0.00446558,0.00393868,0.00387907,0.00372887,0.00461579,0.00421047,0.00469685,0.00427246,0.00329256,0.00353337,0.00365019,0.00440836,0.00398875,0.00413418,0.00399113,0.00312329,0.00374317,0.00420094,0.00407458,0.00455857,0.00387669,0.00383854,0.00396967,0.00382901,0.00382185,0.00436783,0.00477314,0.00424147,0.00448227,0.00434637,0.00442028,0.00359059,0.00350714,0.00473261,0.00368595
History:
0
0
