ProDataStore
Tue Apr 29 14:08:09 2014
Remarks:
5
#HT (Fluorescence channel): 529.999
#HT (Absorbance channel): 530
#Samples per point: 8000
#Sample period: 12.5 us
#Temperature: 22.71 C
0
Properties:
1
Fluorescence -dual
Dimensions:
3
Time -ovs 
100
0.1,0.2,0.3,0.4,0.5,0.6,0.7,0.8,0.9,1,1.1,1.2,1.3,1.4,1.5,1.6,1.7,1.8,1.9,2,2.1,2.2,2.3,2.4,2.5,2.6,2.7,2.8,2.9,3,3.1,3.2,3.3,3.4,3.5,3.6,3.7,3.8,3.9,4,4.1,4.2,4.3,4.4,4.5,4.6,4.7,4.8,4.9,5,5.1,5.2,5.3,5.4,5.5,5.6,5.7,5.8,5.9,6,6.1,6.2,6.3,6.4,6.5,6.6,6.7,6.8,6.9,7,7.1,7.2,7.3,7.4,7.5,7.6,7.7,7.8,7.9,8,8.1,8.2,8.3,8.4,8.5,8.6,8.7,8.8,8.9,9,9.1,9.2,9.3,9.4,9.5,9.6,9.7,9.8,9.9,10

Wavelength -iter
1
250

Channel
2
3,1



0.00143767,0.00165224,0.00144005,0.00148058,0.00132084,0.00111103,0.00134468,0.00128031,0.00146389,0.00145435,0.00128985,0.00143767,0.00143051,0.00150442,0.00135899,0.00153542,0.00143767,0.00144243,0.0014782,0.00146151,0.0014472,0.00128031,0.00135422,0.00114203,0.00146628,0.00154019,0.00148773,0.00139237,0.00120401,0.00164986,0.00132084,0.00132084,0.00145197,0.00108719,0.0015235,0.00144243,0.00125885,0.00145197,0.00159025,0.00157833,0.00139952,0.00115156,0.00121355,0.00123978,0.00139475,0.00157356,0.00118971,0.00128746,0.00119448,0.00155449,0.00160933,0.00140429,0.00119686,0.00136614,0.00142574,0.00138283,0.00134468,0.00151157,0.00125647,0.0014925,0.00152826,0.00119686,0.00174761,0.00129223,0.00153303,0.00174523,0.00132084,0.00156403,0.00157356,0.0015831,0.00121355,0.00113964,0.00153065,0.00128508,0.00135899,0.00158787,0.00115872,0.00131846,0.00128269,0.00148296,0.00132799,0.00122786,0.00144243,0.00143767,0.00164509,0.00132561,0.00147581,0.00132084,0.00150204,0.00144482,0.00112534,0.0013876,0.00163555,0.00142813,0.00139952,0.00141144,0.00133038,0.00108957,0.00130415,0.00144243

-0.0020957,-0.00213862,-0.00213862,-0.00201702,-0.00219107,-0.00205279,-0.00200987,-0.00209332,-0.00216484,-0.00209093,-0.00214338,-0.0020361,-0.00197888,-0.00205994,-0.00200749,-0.00205994,-0.00203848,-0.00200749,-0.00201702,-0.00211001,-0.00204802,-0.00205517,-0.00196457,-0.00212908,-0.0019598,-0.00208855,-0.00205755,-0.00207663,-0.00196695,-0.00210047,-0.00205994,-0.002141,-0.00206947,-0.0020814,-0.00224114,-0.00206709,-0.00213623,-0.00204086,-0.00196219,-0.0020957,-0.00197411,-0.00201464,-0.00205755,-0.00210047,-0.00211001,-0.00201225,-0.00210047,-0.00201464,-0.00209808,-0.00203848,-0.00197172,-0.00217676,-0.0020051,-0.00216246,-0.00198603,-0.00207901,-0.00206471,-0.00215769,-0.00211954,-0.00207424,-0.00209808,-0.00211239,-0.00209808,-0.00209808,-0.00202894,-0.00206471,-0.0020957,-0.00191927,-0.00205994,-0.00203133,-0.0020361,-0.00200749,-0.0019002,-0.00211477,-0.00210762,-0.00214577,-0.00201702,-0.00192881,-0.00203848,-0.00207901,-0.00201225,-0.00198603,-0.00200272,-0.00202894,-0.00211239,-0.00195503,-0.00200987,-0.0021267,-0.0020361,-0.00204086,-0.00211477,-0.00214338,-0.00194788,-0.00201464,-0.00214577,-0.00210524,-0.00197172,-0.00215531,-0.00221491,-0.00207424
History:
0
0
