ProDataStore
Tue Apr 29 13:56:54 2014
Remarks:
5
#HT (Fluorescence channel): 850.006
#HT (Absorbance channel): 850
#Samples per point: 8000
#Sample period: 12.5 us
#Temperature: 22.71 C
0
Properties:
1
Fluorescence -dual
Dimensions:
3
Time -ovs 
100
0.1,0.2,0.3,0.4,0.5,0.6,0.7,0.8,0.9,1,1.1,1.2,1.3,1.4,1.5,1.6,1.7,1.8,1.9,2,2.1,2.2,2.3,2.4,2.5,2.6,2.7,2.8,2.9,3,3.1,3.2,3.3,3.4,3.5,3.6,3.7,3.8,3.9,4,4.1,4.2,4.3,4.4,4.5,4.6,4.7,4.8,4.9,5,5.1,5.2,5.3,5.4,5.5,5.6,5.7,5.8,5.9,6,6.1,6.2,6.3,6.4,6.5,6.6,6.7,6.8,6.9,7,7.1,7.2,7.3,7.4,7.5,7.6,7.7,7.8,7.9,8,8.1,8.2,8.3,8.4,8.5,8.6,8.7,8.8,8.9,9,9.1,9.2,9.3,9.4,9.5,9.6,9.7,9.8,9.9,10

Wavelength -iter
1
250

Channel
2
3,1



0.287554,0.275665,0.291569,0.278027,0.291727,0.295236,0.294085,0.289722,0.295038,0.297339,0.288527,0.302663,0.306971,0.289877,0.30334,0.285194,0.299649,0.296962,0.288594,0.294788,0.287259,0.304466,0.290377,0.287798,0.288258,0.2862,0.294476,0.294371,0.293071,0.287225,0.294266,0.289996,0.292316,0.289569,0.293501,0.319014,0.303405,0.323615,0.293617,0.283294,0.295685,0.29443,0.302799,0.306146,0.293861,0.28019,0.307539,0.296862,0.293293,0.284791,0.29783,0.287955,0.289278,0.278092,0.305109,0.270326,0.311301,0.295866,0.275269,0.293057,0.296531,0.293544,0.283752,0.278218,0.278046,0.302961,0.303927,0.280457,0.302973,0.297773,0.287764,0.28287,0.282419,0.280986,0.300606,0.304761,0.305376,0.30752,0.302005,0.274291,0.291746,0.282686,0.275815,0.277987,0.278683,0.299578,0.280938,0.297525,0.286639,0.288267,0.301028,0.283196,0.299714,0.308142,0.284953,0.294447,0.287733,0.294135,0.290809,0.288642

0.171204,0.155797,0.144372,0.155649,0.164995,0.170045,0.15549,0.166345,0.143933,0.165701,0.168619,0.171909,0.181472,0.172746,0.17741,0.187554,0.170612,0.178127,0.181937,0.159078,0.184112,0.173967,0.177081,0.180833,0.176745,0.179308,0.177279,0.169411,0.179012,0.170727,0.176196,0.176575,0.178812,0.175099,0.168166,0.172718,0.156443,0.174081,0.165525,0.1318,0.13552,0.126286,0.1161,0.119715,0.116723,0.112689,0.123935,0.117333,0.112212,0.124431,0.122376,0.120895,0.12357,0.111351,0.114136,0.124192,0.119391,0.124614,0.112982,0.113709,0.117993,0.118532,0.128763,0.114882,0.117226,0.128937,0.113354,0.11991,0.131779,0.114002,0.136085,0.12022,0.113802,0.105527,0.115688,0.121627,0.120916,0.11188,0.117633,0.114749,0.13129,0.135021,0.13119,0.14498,0.169475,0.187214,0.177128,0.166984,0.178261,0.209778,0.196107,0.207729,0.191078,0.164921,0.18199,0.174999,0.180707,0.1863,0.17462,0.165265
History:
0
0
