ProDataStore
Tue Apr 29 14:16:15 2014
Remarks:
5
#HT (Fluorescence channel): 300.003
#HT (Absorbance channel): 300
#Samples per point: 8000
#Sample period: 12.5 us
#Temperature: 22.66 C
0
Properties:
1
Fluorescence -dual
Dimensions:
3
Time -ovs 
100
0.1,0.2,0.3,0.4,0.5,0.6,0.7,0.8,0.9,1,1.1,1.2,1.3,1.4,1.5,1.6,1.7,1.8,1.9,2,2.1,2.2,2.3,2.4,2.5,2.6,2.7,2.8,2.9,3,3.1,3.2,3.3,3.4,3.5,3.6,3.7,3.8,3.9,4,4.1,4.2,4.3,4.4,4.5,4.6,4.7,4.8,4.9,5,5.1,5.2,5.3,5.4,5.5,5.6,5.7,5.8,5.9,6,6.1,6.2,6.3,6.4,6.5,6.6,6.7,6.8,6.9,7,7.1,7.2,7.3,7.4,7.5,7.6,7.7,7.8,7.9,8,8.1,8.2,8.3,8.4,8.5,8.6,8.7,8.8,8.9,9,9.1,9.2,9.3,9.4,9.5,9.6,9.7,9.8,9.9,10

Wavelength -iter
1
250

Channel
2
3,1



-0.00247717,-0.00247717,-0.00247956,-0.00248432,-0.0024724,-0.00247956,-0.00248432,-0.00248194,-0.00248194,-0.00248671,-0.00248194,-0.00247717,-0.00248671,-0.00247002,-0.00248671,-0.00247717,-0.00247479,-0.00248432,-0.00248194,-0.00248432,-0.00248432,-0.00247479,-0.00247717,-0.00247002,-0.00247479,-0.00246287,-0.00247002,-0.0024724,-0.00247717,-0.00247717,-0.00247479,-0.00246763,-0.00247956,-0.00248909,-0.00247002,-0.00248432,-0.00246763,-0.00247956,-0.00248671,-0.00247717,-0.00247717,-0.00248194,-0.00248432,-0.00247956,-0.00249624,-0.00248671,-0.00248194,-0.00248909,-0.00248671,-0.00248432,-0.00246763,-0.00247717,-0.00249148,-0.00248194,-0.00247717,-0.00248671,-0.00248432,-0.00247717,-0.00248194,-0.00248194,-0.00246763,-0.00246763,-0.00248432,-0.00247717,-0.00248432,-0.00246763,-0.00248432,-0.00248432,-0.00249386,-0.00247479,-0.00248909,-0.00249386,-0.00248432,-0.00248909,-0.00248671,-0.00249386,-0.00248671,-0.00248671,-0.00247956,-0.00247479,-0.00248432,-0.00248671,-0.00248671,-0.00248194,-0.00248432,-0.00247479,-0.00247956,-0.00247717,-0.00247479,-0.0024724,-0.00248194,-0.00246525,-0.00247479,-0.00247479,-0.00246763,-0.00247002,-0.00247956,-0.00248909,-0.00249148,-0.0024724

-0.00329972,-0.0033164,-0.00330925,-0.00331879,-0.00331402,-0.00331164,-0.00332594,-0.00332594,-0.00330687,-0.00332117,-0.00331164,-0.0033021,-0.00330687,-0.0033021,-0.00331164,-0.00330687,-0.00330448,-0.00329972,-0.00329495,-0.00330687,-0.00330448,-0.00329972,-0.00329733,-0.00331164,-0.00331164,-0.00330448,-0.0033021,-0.00330925,-0.0033164,-0.00331164,-0.0033021,-0.00330448,-0.00330687,-0.00331402,-0.00332117,-0.00331164,-0.0033164,-0.00331164,-0.00332117,-0.0033021,-0.0033164,-0.00331164,-0.00330448,-0.00331879,-0.00329495,-0.00330925,-0.00329972,-0.0033021,-0.00329733,-0.00329018,-0.00328541,-0.00329495,-0.00330448,-0.00329733,-0.0033021,-0.00329733,-0.00330687,-0.00330687,-0.00329972,-0.00330687,-0.00329972,-0.00331402,-0.00329018,-0.00331164,-0.00331164,-0.00331164,-0.00329256,-0.00329495,-0.00329018,-0.00328779,-0.00329495,-0.00330448,-0.00327826,-0.00330448,-0.00329018,-0.00328541,-0.00329018,-0.00329495,-0.00329972,-0.00328779,-0.0033021,-0.00330448,-0.00326634,-0.00329495,-0.00329018,-0.00328541,-0.00329495,-0.00329256,-0.00327826,-0.00328541,-0.00329495,-0.00326872,-0.00328779,-0.00329018,-0.00328779,-0.00329733,-0.00329733,-0.00329495,-0.00330687,-0.0033021
History:
0
0
