ProDataStore
Tue Apr 29 14:07:48 2014
Remarks:
5
#HT (Fluorescence channel): 539.993
#HT (Absorbance channel): 540
#Samples per point: 8000
#Sample period: 12.5 us
#Temperature: 22.66 C
0
Properties:
1
Fluorescence -dual
Dimensions:
3
Time -ovs 
100
0.1,0.2,0.3,0.4,0.5,0.6,0.7,0.8,0.9,1,1.1,1.2,1.3,1.4,1.5,1.6,1.7,1.8,1.9,2,2.1,2.2,2.3,2.4,2.5,2.6,2.7,2.8,2.9,3,3.1,3.2,3.3,3.4,3.5,3.6,3.7,3.8,3.9,4,4.1,4.2,4.3,4.4,4.5,4.6,4.7,4.8,4.9,5,5.1,5.2,5.3,5.4,5.5,5.6,5.7,5.8,5.9,6,6.1,6.2,6.3,6.4,6.5,6.6,6.7,6.8,6.9,7,7.1,7.2,7.3,7.4,7.5,7.6,7.7,7.8,7.9,8,8.1,8.2,8.3,8.4,8.5,8.6,8.7,8.8,8.9,9,9.1,9.2,9.3,9.4,9.5,9.6,9.7,9.8,9.9,10

Wavelength -iter
1
250

Channel
2
3,1



0.00200749,0.00195742,0.00184298,0.0017786,0.00200272,0.00201941,0.00204563,0.00231028,0.00207663,0.00195742,0.00212908,0.00205517,0.00195265,0.00186443,0.002141,0.00178814,0.00198841,0.00195027,0.0020504,0.00217438,0.0023222,0.00216007,0.00176907,0.00189304,0.00208855,0.0020051,0.00230074,0.00221253,0.00223637,0.00211716,0.002141,0.00205994,0.0022316,0.00197411,0.00196934,0.00211477,0.00174523,0.00219822,0.00228167,0.00183106,0.00231981,0.00218868,0.00195265,0.00223398,0.00183821,0.00199795,0.00197172,0.00199556,0.00196219,0.00205517,0.00230074,0.00205755,0.00180006,0.00227451,0.00213623,0.00196219,0.0018549,0.00228167,0.00210047,0.0023675,0.00200987,0.00213385,0.00187874,0.00202894,0.00178337,0.00231266,0.00221491,0.00193358,0.00191212,0.00217676,0.00218392,0.00218868,0.0019455,0.00163078,0.00206947,0.00215531,0.00202179,0.00196695,0.00166416,0.00234604,0.00188589,0.00164271,0.00183821,0.00186205,0.0021863,0.00216484,0.00223398,0.00247717,0.002141,0.00197649,0.00223398,0.00194788,0.00258208,0.00215531,0.00204325,0.00213385,0.00175953,0.00205517,0.00214577,0.00206709

-0.00178576,-0.00190973,-0.00184059,-0.00170708,-0.00177384,-0.00186682,-0.0018692,-0.00179768,-0.00180245,-0.00180006,-0.00196695,-0.0018096,-0.00194073,-0.00198364,-0.0018692,-0.00195027,-0.00185251,-0.00184536,-0.00189066,-0.00190735,-0.00188351,-0.00187159,-0.00181914,-0.00186205,-0.00176668,-0.00180483,-0.0018239,-0.00180483,-0.00183106,-0.00184536,-0.00181914,-0.00168562,-0.0019145,-0.00165463,-0.00192404,-0.00185251,-0.00185967,-0.00187636,-0.00189543,-0.0019455,-0.00172615,-0.00184775,-0.00176668,-0.00188589,-0.00183821,-0.00180245,-0.00174999,-0.00182629,-0.00184059,-0.0018549,-0.00185013,-0.00170708,-0.00178099,-0.00171185,-0.00185251,-0.00174523,-0.00171423,-0.00187874,-0.00183344,-0.00181914,-0.00169516,-0.00181675,-0.00177384,-0.00165701,-0.00172377,-0.00179291,-0.00181675,-0.00184775,-0.0018549,-0.00183106,-0.00190497,-0.00174046,-0.00175953,-0.00185251,-0.00193596,-0.00199795,-0.00187397,-0.00178814,-0.00190735,-0.00185967,-0.00179052,-0.00182867,-0.00189781,-0.00184775,-0.00191927,-0.00184536,-0.00190258,-0.00174284,-0.00170231,-0.00194073,-0.00175953,-0.00190258,-0.00183106,-0.00177384,-0.00192642,-0.00184298,-0.00189543,-0.00177384,-0.00186443,-0.00169993
History:
0
0
