ProDataStore
Tue Apr 29 14:12:23 2014
Remarks:
5
#HT (Fluorescence channel): 410.004
#HT (Absorbance channel): 410
#Samples per point: 8000
#Sample period: 12.5 us
#Temperature: 22.66 C
0
Properties:
1
Fluorescence -dual
Dimensions:
3
Time -ovs 
100
0.1,0.2,0.3,0.4,0.5,0.6,0.7,0.8,0.9,1,1.1,1.2,1.3,1.4,1.5,1.6,1.7,1.8,1.9,2,2.1,2.2,2.3,2.4,2.5,2.6,2.7,2.8,2.9,3,3.1,3.2,3.3,3.4,3.5,3.6,3.7,3.8,3.9,4,4.1,4.2,4.3,4.4,4.5,4.6,4.7,4.8,4.9,5,5.1,5.2,5.3,5.4,5.5,5.6,5.7,5.8,5.9,6,6.1,6.2,6.3,6.4,6.5,6.6,6.7,6.8,6.9,7,7.1,7.2,7.3,7.4,7.5,7.6,7.7,7.8,7.9,8,8.1,8.2,8.3,8.4,8.5,8.6,8.7,8.8,8.9,9,9.1,9.2,9.3,9.4,9.5,9.6,9.7,9.8,9.9,10

Wavelength -iter
1
250

Channel
2
3,1



-0.00193358,-0.00197172,-0.00194073,-0.00191927,-0.00193358,-0.00193358,-0.00192881,-0.00196219,-0.00190735,-0.00196219,-0.00193834,-0.00198126,-0.00197649,-0.00197888,-0.00196695,-0.00193596,-0.00194073,-0.00198841,-0.00198364,-0.00196934,-0.00193119,-0.00195027,-0.00197411,-0.0019908,-0.00195503,-0.00194788,-0.00199318,-0.00194788,-0.00196695,-0.00195503,-0.00195503,-0.00198126,-0.0019455,-0.00194073,-0.00197411,-0.00191212,-0.00198841,-0.00195027,-0.00195027,-0.00197411,-0.0019455,-0.00196934,-0.00197172,-0.00195027,-0.00198126,-0.00202179,-0.00193119,-0.00192166,-0.00196934,-0.00197888,-0.00198603,-0.00196695,-0.00196457,-0.00199318,-0.00196219,-0.00195503,-0.00195742,-0.00198841,-0.00197411,-0.00196934,-0.00197172,-0.00198841,-0.00196457,-0.00197649,-0.0019455,-0.0019598,-0.0019598,-0.00200272,-0.0019598,-0.00197888,-0.00198364,-0.00194788,-0.00199556,-0.0019908,-0.0019908,-0.00197649,-0.00196934,-0.00195503,-0.00196457,-0.00197411,-0.00193834,-0.00197172,-0.00196457,-0.00197649,-0.00196457,-0.00196457,-0.00197649,-0.00193358,-0.00199795,-0.00198364,-0.00195027,-0.00196457,-0.00200749,-0.00196934,-0.00195742,-0.0019908,-0.00198364,-0.00200033,-0.00197888,-0.00202179

-0.00317574,-0.00318527,-0.00318289,-0.00317335,-0.00317574,-0.00317812,-0.00319243,-0.00317812,-0.00318527,-0.00315905,-0.00318051,-0.00317097,-0.00315428,-0.0031662,-0.0031662,-0.00316859,-0.00316382,-0.00317574,-0.00315428,-0.00315666,-0.00315666,-0.00316382,-0.00315428,-0.00315666,-0.00315666,-0.0031662,-0.00314713,-0.00313759,-0.00316859,-0.00315666,-0.00317097,-0.0031519,-0.00315666,-0.00317812,-0.0031519,-0.00316143,-0.00315428,-0.00314951,-0.00316382,-0.00317335,-0.00315428,-0.0031662,-0.00317574,-0.00318766,-0.00315666,-0.00317335,-0.0031662,-0.00316382,-0.00315428,-0.00318527,-0.00315428,-0.00317097,-0.00315905,-0.00315428,-0.00317335,-0.00316143,-0.0031519,-0.00316143,-0.00315905,-0.00316382,-0.00315905,-0.00314474,-0.00313759,-0.0031519,-0.00315905,-0.00314474,-0.00316859,-0.00315428,-0.00315666,-0.00315666,-0.00314713,-0.0031519,-0.0031519,-0.00314951,-0.00313282,-0.00313998,-0.00313282,-0.00313521,-0.00314236,-0.0031209,-0.00312805,-0.00312805,-0.00312805,-0.00311613,-0.00311852,-0.00313759,-0.00312567,-0.00313044,-0.0031209,-0.00313759,-0.00313044,-0.00313521,-0.00312805,-0.00313998,-0.00314713,-0.00313282,-0.00313282,-0.00312567,-0.00313282,-0.0031519
History:
0
0
